t[s] h[m]  P[Pa]  ax[g] 
0.00 -0.00 101325.00   0.98 
0.00 -0.00 101325.00   0.98 
0.00 -0.00 101325.00   0.98 
0.01 -0.00 101325.00   0.98 
0.02 -0.00 101325.00   0.99 
0.02 -0.00 101325.00   1.01 
0.02 0.00 101325.00   1.08 
0.02 0.00 101325.00   1.20 
0.02 0.00 101325.00   1.33 
0.03 0.00 101325.00   1.58 
0.03 0.00 101325.00   2.00 
0.04 0.00 101324.98   2.50 
0.05 0.00 101324.94   3.16 
0.06 0.01 101324.87   4.16 
0.09 0.03 101324.60   5.17 
0.11 0.08 101324.07   6.48 
0.13 0.15 101323.23   7.32 
0.14 0.19 101322.72   7.77 
0.15 0.24 101322.13   7.79 
0.16 0.29 101321.46   7.86 
0.18 0.43 101319.88   7.97 
0.22 0.77 101315.71   8.18 
0.31 1.81 101303.27   8.44 
0.39 3.32 101285.13   8.70 
0.43 4.26 101273.84   8.89 
0.45 4.78 101267.63   8.97 
0.46 5.05 101264.38   9.02 
0.47 5.33 101261.04   9.05 
0.47 5.45 101259.50   9.07 
0.48 5.58 101257.94   9.09 
0.48 5.71 101256.37   9.11 
0.49 5.98 101253.16   9.14 
0.51 6.54 101246.50   9.19 
0.53 7.12 101239.52   9.24 
0.55 7.73 101232.22   9.29 
0.56 8.30 101225.38   9.33 
0.58 8.83 101218.99   9.37 
0.59 9.38 101212.39   9.40 
0.61 9.95 101205.58   9.43 
0.62 10.53 101198.55   9.44 
0.64 11.14 101191.30   9.44 
0.65 11.76 101183.83   9.42 
0.66 12.33 101176.92   9.39 
0.68 12.86 101170.56   9.35 
0.69 13.41 101164.05   9.29 
0.71 14.53 101150.59   9.17 
0.73 15.58 101138.00   9.02 
0.75 16.56 101126.26   8.85 
0.77 17.57 101114.15   8.67 
0.79 18.61 101101.67   8.47 
0.81 19.68 101088.81   8.27 
0.83 20.78 101075.59   8.08 
0.85 21.92 101061.99   7.90 
0.87 23.08 101048.03   7.74 
0.88 23.60 101041.77   7.63 
0.89 24.13 101035.45   7.54 
0.89 24.66 101029.05   7.44 
0.91 25.75 101016.05   7.31 
0.93 26.86 101002.77   7.21 
0.95 27.99 100989.22   7.17 
0.96 29.14 100975.41   7.20 
0.98 30.32 100961.34   7.30 
1.00 31.51 100947.00   7.56 
1.03 33.97 100917.57   8.00 
1.04 34.96 100905.75   8.46 
1.06 35.96 100893.79   8.95 
1.08 37.99 100869.40   9.68 
1.11 40.08 100844.42  10.48 
1.14 41.97 100821.87  11.12 
1.16 43.67 100801.48  11.56 
1.18 45.41 100780.72  11.83 
1.20 47.17 100759.59  11.92 
1.22 48.97 100738.07  11.85 
1.24 50.80 100716.18  11.68 
1.25 51.73 100705.10  11.48 
1.26 52.67 100693.91  11.33 
1.27 53.14 100688.28  11.18 
1.27 53.61 100682.63  11.07 
1.28 54.08 100676.96  10.92 
1.29 55.04 100665.53  10.73 
1.30 56.00 100654.01  10.50 
1.31 56.98 100642.40  10.28 
1.32 57.96 100630.68  10.06 
1.33 58.95 100618.87   9.86 
1.34 59.94 100606.96   9.63 
1.36 61.96 100582.86   9.39 
1.38 63.81 100560.83   9.16 
1.40 65.49 100540.74   8.97 
1.41 67.19 100520.40   8.78 
1.43 68.92 100499.80   8.57 
1.45 70.66 100478.97   8.33 
1.46 72.43 100457.89   8.07 
1.48 74.04 100438.72   7.79 
1.50 75.66 100419.37   7.50 
1.51 77.30 100399.83   7.19 
1.53 78.95 100380.12   6.89 
1.54 80.62 100360.23   6.61 
1.56 82.30 100340.18   6.40 
1.56 83.06 100331.10   6.24 
1.57 83.83 100321.99   6.13 
1.58 84.60 100312.85   6.04 
1.58 85.37 100303.67   5.96 
1.59 86.14 100294.46   5.90 
1.60 86.92 100285.22   5.86 
1.60 87.69 100275.96   5.83 
1.62 89.26 100257.33   5.86 
1.63 90.67 100240.46   5.96 
1.64 92.10 100223.50   6.13 
1.66 93.53 100206.45   6.42 
1.68 96.42 100172.08   6.96 
1.70 99.33 100137.37   7.58 
1.73 102.28 100102.31   8.09 
1.75 105.26 100066.92   8.35 
1.78 108.26 100031.18   8.32 
1.80 110.99 99998.73   8.07 
1.82 113.75 99966.00   7.75 
1.83 114.97 99951.42   7.47 
1.84 116.20 99936.78   7.26 
1.85 117.44 99922.09   7.07 
1.86 118.68 99907.35   6.89 
1.87 119.93 99892.54   6.72 
1.88 121.18 99877.69   6.56 
1.89 122.44 99862.78   6.37 
1.91 124.96 99832.79   6.16 
1.93 127.51 99802.59   5.90 
1.95 130.07 99772.18   5.61 
1.97 132.65 99741.57   5.29 
1.99 135.25 99710.76   4.97 
2.01 137.60 99682.87   4.68 
2.03 139.97 99654.83   4.47 
2.03 141.03 99642.17   4.32 
2.04 142.10 99629.48   4.22 
2.05 143.18 99616.76   4.13 
2.07 145.33 99591.24   4.07 
2.08 147.50 99565.62   4.11 
2.10 149.67 99539.90   4.26 
2.11 151.85 99514.08   4.52 
2.13 154.04 99488.17   4.86 
2.14 155.99 99465.00   5.20 
2.16 157.96 99441.75   5.51 
2.17 159.93 99418.44   5.75 
2.19 161.71 99397.39   5.92 
2.20 163.49 99376.30   6.00 
2.21 165.28 99355.14   6.01 
2.22 167.08 99333.93   5.96 
2.24 168.87 99312.66   5.84 
2.25 170.68 99291.34   5.70 
2.26 171.49 99281.72   5.57 
2.26 172.31 99272.10   5.46 
2.27 173.12 99262.46   5.36 
2.27 173.94 99252.81   5.26 
2.28 174.76 99243.15   5.13 
2.29 176.40 99223.79   4.97 
2.30 178.04 99204.38   4.78 
2.31 179.69 99184.93   4.61 
2.33 181.34 99165.44   4.40 
2.35 184.65 99126.30   4.15 
2.37 187.65 99090.93   3.85 
2.39 190.66 99055.42   3.54 
2.41 193.68 99019.78   3.24 
2.43 196.41 98987.60   3.00 
2.44 197.78 98971.48   2.84 
2.45 199.15 98955.34   2.75 
2.45 199.84 98947.26   2.68 
2.46 200.52 98939.17   2.63 
2.46 201.21 98931.08   2.58 
2.47 202.58 98914.88   2.51 
2.49 205.34 98882.44   2.51 
2.51 208.10 98849.93   2.61 
2.53 210.87 98817.36   2.82 
2.54 213.36 98788.00   3.05 
2.56 215.86 98758.60   3.28 
2.58 218.36 98729.16   3.44 
2.60 220.87 98699.69   3.52 
2.61 223.37 98670.19   3.49 
2.63 225.89 98640.65   3.38 
2.65 228.40 98611.08   3.22 
2.65 229.54 98597.76   3.05 
2.66 230.67 98584.43   2.92 
2.67 231.80 98571.11   2.79 
2.68 232.94 98557.77   2.66 
2.68 234.08 98544.43   2.49 
2.70 236.35 98517.73   2.28 
2.71 238.62 98491.01   2.04 
2.73 240.90 98464.27   1.80 
2.74 243.18 98437.52   1.56 
2.76 245.46 98410.75   1.33 
2.77 247.75 98383.97   1.09 
2.79 250.03 98357.19   0.87 
2.80 252.31 98330.40   0.66 
2.82 254.60 98303.61   0.49 
2.83 256.88 98276.82   0.38 
2.84 257.91 98264.83   0.28 
2.85 258.93 98252.83   0.23 
2.86 259.96 98240.84   0.18 
2.87 262.00 98216.87   0.13 
2.90 266.09 98168.96   0.23 
2.92 270.18 98121.11   0.46 
2.95 273.79 98078.86   0.73 
2.97 277.40 98036.67   0.93 
3.00 281.00 97994.54   0.99 
3.02 284.60 97952.48   0.93 
3.03 286.39 97931.47   0.81 
3.04 288.19 97910.48   0.69 
3.06 289.99 97889.50   0.53 
3.08 293.57 97847.60   0.32 
3.10 297.16 97805.76   0.07 
3.13 300.74 97763.98  -0.17 
3.15 304.31 97722.28  -0.39 
3.18 307.88 97680.65  -0.57 
3.20 311.44 97639.10  -0.67 
3.21 313.22 97618.36  -0.72 
3.22 315.00 97597.64  -0.75 
3.23 316.60 97579.02  -0.75 
3.24 318.20 97560.41  -0.73 
3.27 321.39 97523.25  -0.64 
3.29 324.57 97486.17  -0.47 
3.31 327.75 97449.16  -0.26 
3.33 330.92 97412.25  -0.05 
3.35 334.09 97375.41   0.11 
3.37 337.25 97338.65   0.19 
3.40 340.40 97301.97   0.20 
3.42 343.55 97265.38   0.14 
3.43 345.12 97247.10   0.06 
3.44 346.69 97228.85  -0.01 
3.45 348.26 97210.62  -0.11 
3.47 351.40 97174.20  -0.24 
3.49 354.53 97137.86  -0.40 
3.51 357.65 97101.60  -0.54 
3.54 360.77 97065.41  -0.65 
3.56 363.88 97029.29  -0.75 
3.58 366.99 96993.25  -0.81 
3.60 370.09 96957.30  -0.84 
3.61 371.64 96939.35  -0.84 
3.62 373.19 96921.42  -0.83 
3.63 374.73 96903.51  -0.81 
3.64 376.28 96885.62  -0.75 
3.67 379.36 96849.91  -0.64 
3.69 382.44 96814.29  -0.49 
3.71 385.51 96778.75  -0.32 
3.73 388.57 96743.29  -0.16 
3.75 391.63 96707.92  -0.04 
3.80 397.72 96637.42  -0.00 
3.81 400.18 96609.00  -0.05 
3.83 402.64 96580.64  -0.12 
3.85 405.09 96552.32  -0.20 
3.87 407.53 96524.05  -0.28 
3.88 409.98 96495.84  -0.39 
3.92 414.85 96439.54  -0.52 
3.95 419.72 96383.45  -0.64 
3.99 424.56 96327.55  -0.70 
4.02 429.39 96271.85  -0.68 
4.04 431.56 96246.86  -0.65 
4.05 433.73 96221.90  -0.60 
4.07 435.89 96196.99  -0.52 
4.10 440.21 96147.30  -0.38 
4.13 444.51 96097.78  -0.23 
4.16 448.80 96048.43  -0.13 
4.20 453.07 95999.24  -0.11 
4.21 455.21 95974.71  -0.13 
4.23 457.34 95950.22  -0.16 
4.24 459.46 95925.77  -0.20 
4.26 461.59 95901.36  -0.26 
4.29 465.83 95852.66  -0.35 
4.32 470.06 95804.11  -0.45 
4.35 474.27 95755.71  -0.53 
4.38 478.48 95707.48  -0.58 
4.42 482.67 95659.40  -0.60 
4.43 484.76 95635.42  -0.60 
4.45 486.85 95611.48  -0.58 
4.46 488.93 95587.58  -0.56 
4.48 491.02 95563.73  -0.51 
4.51 495.17 95516.14  -0.42 
4.54 499.31 95468.72  -0.31 
4.57 503.44 95421.46  -0.22 
4.60 507.56 95374.37  -0.17 
4.64 511.66 95327.44  -0.17 
4.67 515.75 95280.66  -0.22 
4.70 519.42 95238.69  -0.28 
4.72 523.09 95196.85  -0.35 
4.75 526.74 95155.13  -0.42 
4.78 530.39 95113.53  -0.48 
4.81 534.02 95072.06  -0.52 
4.87 541.26 94989.49  -0.53 
4.89 543.97 94958.61  -0.51 
4.91 546.67 94927.79  -0.48 
4.93 549.37 94897.05  -0.42 
4.97 554.75 94835.79  -0.33 
5.01 560.11 94774.82  -0.25 
5.06 565.44 94714.14  -0.20 
5.10 570.75 94653.74  -0.22 
5.14 576.04 94593.61  -0.28 
5.18 580.78 94539.74  -0.35 
5.22 585.51 94486.08  -0.41 
5.26 590.22 94432.64  -0.45 
5.30 594.91 94379.43  -0.47 
5.33 599.58 94326.44  -0.45 
5.37 604.24 94273.68  -0.43 
5.41 608.41 94226.39  -0.37 
5.44 612.15 94183.98  -0.32 
5.47 615.89 94141.73  -0.27 
5.50 619.61 94099.62  -0.24 
5.53 623.32 94057.66  -0.23 
5.56 627.01 94015.84  -0.24 
5.59 630.70 93974.17  -0.26 
5.62 634.38 93932.64  -0.30 
5.65 638.04 93891.25  -0.35 
5.72 645.33 93808.90  -0.40 
5.76 650.94 93745.61  -0.42 
5.81 656.53 93682.66  -0.41 
5.86 661.53 93626.31  -0.39 
5.89 666.01 93575.82  -0.36 
5.93 670.47 93525.57  -0.32 
5.97 674.91 93475.54  -0.28 
6.01 679.34 93425.74  -0.26 
6.05 683.75 93376.15  -0.25 
6.09 688.14 93326.79  -0.27 
6.13 692.51 93277.65  -0.30 
6.17 696.87 93228.73  -0.33 
6.20 701.21 93180.02  -0.35 
6.24 705.53 93131.53  -0.37 
6.28 709.83 93083.26  -0.38 
6.32 714.12 93035.20  -0.38 
6.36 718.38 92987.37  -0.37 
6.39 722.21 92944.50  -0.35 
6.43 726.02 92901.81  -0.33 
6.46 729.82 92859.30  -0.30 
6.50 733.60 92816.97  -0.28 
6.53 737.37 92774.81  -0.27 
6.57 741.12 92732.83  -0.26 
6.60 744.86 92691.02  -0.26 
6.64 748.59 92649.38  -0.27 
6.67 752.30 92607.92  -0.29 
6.71 756.00 92566.63  -0.31 
6.78 763.35 92484.55  -0.34 
6.85 770.65 92403.16  -0.34 
6.92 777.89 92322.46  -0.33 
6.95 781.49 92282.36  -0.32 
6.99 785.08 92242.43  -0.31 
7.02 788.65 92202.68  -0.30 
7.06 792.20 92163.10  -0.29 
7.09 795.75 92123.68  -0.28 
7.16 802.79 92045.37  -0.27 
7.23 809.78 91967.72  -0.27 
7.29 815.83 91900.50  -0.29 
7.36 821.85 91833.79  -0.30 
7.42 827.82 91767.58  -0.31 
7.48 833.74 91701.88  -0.32 
7.54 839.63 91636.68  -0.31 
7.60 845.47 91571.99  -0.31 
7.65 850.70 91514.19  -0.30 
7.70 855.37 91462.53  -0.29 
7.75 860.01 91411.19  -0.28 
7.80 864.63 91360.19  -0.27 
7.85 869.21 91309.51  -0.27 
7.90 873.78 91259.16  -0.26 
7.95 878.31 91209.13  -0.27 
8.00 882.82 91159.42  -0.27 
8.05 887.30 91110.04  -0.28 
8.15 896.17 91012.23  -0.29 
8.24 904.07 90925.29  -0.29 
8.33 911.88 90839.39  -0.28 
8.42 919.60 90754.52  -0.27 
8.50 927.23 90670.67  -0.26 
8.59 934.78 90587.84  -0.27 
8.68 942.24 90506.02  -0.27 
8.77 949.61 90425.22  -0.27 
8.86 956.90 90345.42  -0.27 
8.95 964.10 90266.62  -0.27 
9.04 971.21 90188.82  -0.26 
9.13 978.24 90112.02  -0.26 
9.22 985.18 90036.21  -0.26 
9.31 992.04 89961.38  -0.26 
9.39 998.81 89887.54  -0.26 
9.48 1005.49 89814.69  -0.26 
9.57 1012.09 89742.81  -0.26 
9.75 1025.04 89601.97  -0.26 
9.90 1035.59 89487.25  -0.26 
10.03 1044.89 89386.30  -0.25 
10.15 1053.09 89297.29  -0.25 
10.26 1060.34 89218.67  -0.25 
10.37 1067.47 89141.46  -0.25 
10.48 1074.47 89065.66  -0.25 
10.59 1081.35 88991.24  -0.24 
10.69 1088.11 88918.22  -0.24 
10.80 1094.74 88846.57  -0.24 
10.91 1101.25 88776.31  -0.23 
11.13 1113.89 88639.90  -0.24 
11.34 1126.05 88508.94  -0.23 
11.54 1136.57 88395.72  -0.24 
11.72 1145.70 88297.54  -0.24 
11.86 1152.94 88219.80  -0.23 
11.98 1158.76 88157.25  -0.22 
12.10 1164.45 88096.29  -0.22 
12.22 1169.98 88036.92  -0.22 
12.33 1175.37 87979.14  -0.22 
12.45 1180.62 87922.95  -0.22 
12.57 1185.72 87868.34  -0.22 
12.69 1190.68 87815.30  -0.21 
12.81 1195.49 87763.82  -0.21 
12.93 1200.16 87713.91  -0.20 
13.17 1209.06 87618.76  -0.21 
13.38 1216.59 87538.42  -0.20 
13.60 1223.65 87463.07  -0.19 
13.81 1230.25 87392.71  -0.19 
13.90 1232.98 87363.61  -0.18 
14.00 1235.63 87335.44  -0.18 
14.09 1238.18 87308.21  -0.18 
14.18 1240.65 87281.90  -0.18 
14.28 1243.04 87256.54  -0.18 
14.37 1245.33 87232.10  -0.17 
14.46 1247.54 87208.59  -0.16 
14.65 1251.70 87164.36  -0.16 
14.83 1255.51 87123.82  -0.15 
15.00 1258.62 87090.77  -0.15 
15.17 1261.46 87060.63  -0.14 
15.33 1264.02 87033.42  -0.13 
15.50 1266.31 87009.11  -0.13 
15.67 1268.33 86987.71  -0.12 
15.75 1269.23 86978.09  -0.11 
15.83 1270.07 86969.20  -0.11 
15.92 1270.84 86961.02  -0.11 
16.00 1271.54 86953.57  -0.10 
16.16 1272.74 86940.82  -0.09 
16.33 1273.67 86930.95  -0.09 
16.48 1274.28 86924.53  -0.08 
16.63 1274.67 86920.42  -0.07 
16.78 1274.83 86918.64  -0.07 
16.82 1274.84 86918.55  -0.06 
16.87 1274.83 86918.68  -0.06 
16.91 1274.80 86918.98  -0.06 
16.95 1274.76 86919.41  -0.05 
16.99 1274.71 86919.98  -0.05 
17.06 1274.56 86921.55  -0.05 
17.16 1274.28 86924.54  -0.04 
17.26 1273.90 86928.57  -0.04 
17.36 1273.42 86933.63  -0.03 
17.46 1272.85 86939.72  -0.03 
17.56 1272.18 86946.84  -0.02 
17.66 1271.41 86954.99  -0.02 
17.76 1270.54 86964.16  -0.02 
17.82 1269.99 86970.06  -0.02 
17.82 1269.99 86970.06  -0.99 
17.82 1269.96 86970.35  -1.71 
17.83 1269.91 86970.94  -1.69 
17.84 1269.80 86972.09  -1.65 
17.86 1269.58 86974.35  -1.58 
17.91 1269.17 86978.73  -1.47 
18.00 1268.39 86987.07  -1.38 
18.08 1267.71 86994.27  -1.29 
18.16 1267.04 87001.33  -1.23 
18.25 1266.38 87008.35  -1.19 
18.33 1265.72 87015.40  -1.16 
18.41 1265.05 87022.53  -1.14 
18.49 1264.36 87029.77  -1.12 
18.58 1263.67 87037.16  -1.10 
18.66 1262.96 87044.72  -1.09 
18.74 1262.23 87052.47  -1.08 
18.90 1260.71 87068.58  -1.06 
19.07 1259.11 87085.58  -1.05 
19.23 1257.42 87103.51  -1.05 
19.40 1255.65 87122.37  -1.04 
19.56 1253.79 87142.17  -1.03 
19.73 1251.84 87162.88  -1.03 
19.89 1249.81 87184.48  -1.03 
20.05 1247.70 87206.91  -1.02 
20.22 1245.52 87230.13  -1.02 
20.38 1243.27 87254.08  -1.02 
20.71 1238.58 87303.98  -1.02 
21.04 1233.68 87356.14  -1.01 
21.37 1228.61 87410.15  -1.01 
21.70 1223.41 87465.63  -1.01 
22.02 1218.10 87522.26  -1.01 
22.35 1212.71 87579.77  -1.01 
23.01 1201.77 87696.66  -1.01 
23.67 1190.69 87815.12  -1.00 
24.32 1179.54 87934.45  -1.00 
24.98 1168.36 88054.29  -1.00 
25.64 1157.16 88174.43  -1.00 
26.30 1145.96 88294.75  -1.00 
27.61 1123.56 88535.71  -1.00 
28.92 1101.17 88777.09  -1.00 
30.24 1078.81 89018.76  -1.00 
31.55 1056.49 89260.50  -1.00 
32.87 1034.19 89502.47  -1.00 
34.18 1011.89 89745.00  -1.00 
35.49 989.62 89987.77  -1.00 
36.81 967.44 90230.07  -1.00 
38.12 945.25 90473.02  -1.00 
38.78 934.13 90595.03  -1.00 
40.09 911.91 90839.02  -1.00 
41.15 894.21 91033.81  -1.00 
42.20 876.51 91228.96  -1.00 
43.25 858.78 91424.77  -1.00 
44.30 841.09 91620.50  -1.00 
45.35 823.44 91816.06  -1.00 
46.41 805.79 92012.01  -1.00 
47.46 788.13 92208.38  -1.00 
48.51 770.51 92404.70  -1.00 
49.56 752.92 92600.99  -1.00 
50.62 735.33 92797.61  -1.00 
51.67 717.74 92994.56  -1.00 
52.72 700.18 93191.53  -1.00 
53.77 682.65 93388.53  -1.00 
54.82 665.12 93585.81  -1.00 
55.88 647.60 93783.35  -1.00 
56.93 630.10 93980.97  -1.00 
57.98 612.62 94178.66  -1.00 
59.03 595.16 94376.59  -1.00 
60.09 577.70 94574.75  -1.00 
61.14 560.26 94773.02  -1.00 
62.19 542.85 94971.38  -1.00 
63.24 525.44 95169.96  -1.00 
64.29 508.05 95368.75  -1.00 
66.40 473.30 95766.87  -1.00 
68.29 442.08 96125.68  -1.00 
70.19 410.93 96484.87  -1.00 
72.08 379.83 96844.44  -1.00 
73.97 348.79 97204.53  -1.00 
75.87 317.78 97565.27  -1.00 
77.57 289.89 97890.64  -1.00 
79.28 262.03 98216.56  -1.00 
80.98 234.22 98542.75  -1.00 
82.52 209.25 98836.38  -1.00 
84.05 184.32 99130.22  -1.00 
85.58 159.41 99424.59  -1.00 
86.97 136.99 99690.09  -1.00 
88.35 114.60 99955.87  -1.00 
89.73 92.25 100221.73  -1.00 
91.11 69.93 100487.72  -1.00 
92.49 47.63 100754.10  -1.00 
93.87 25.35 101020.82  -1.00 
95.32 2.00 101300.98  -1.00 
95.32 2.00 101300.98  -1.00 
95.32 1.99 101301.13  -1.58 
95.32 1.96 101301.43  -1.57 
95.32 1.91 101302.03  -1.55 
95.33 1.81 101303.20  -1.51 
95.34 1.62 101305.49  -1.44 
95.36 1.27 101309.74  -1.36 
95.39 0.96 101313.53  -1.27 
95.42 0.68 101316.84  -1.20 
95.44 0.44 101319.67  -1.14 
95.47 0.24 101322.06  -1.07 
95.51 -0.00 101325.00  -1.05 
